# z[m] T[K]
  156.92   290.18
  162.98   289.92
  168.73   289.79
  174.06   289.71
  188.19   289.53
  193.35   289.45
  198.53   289.40
  202.31   289.33
  206.40   289.33
  211.96   289.09
  216.20   288.92
  221.15   288.81
  225.87   288.74
  229.73   288.69
  234.22   288.61
  239.05   288.56
  243.87   288.53
  249.95   288.48
  253.88   288.48
  260.17   288.41
  264.76   288.36
  270.72   288.28
  276.50   288.25
  281.66   288.20
  287.87   288.13
  293.63   288.08
  299.18   288.05
  304.51   288.00
  310.39   287.98
  315.87   287.90
  321.78   287.83
  327.56   287.75
  333.63   287.68
  340.36   287.60
  345.04   287.58
  350.14   287.53
  355.16   287.48
  360.49   287.48
  366.24   287.50
  372.04   287.45
  375.67   287.40
  382.15   287.25
  387.14   287.25
  392.85   287.13
  399.03   287.03
  404.83   286.98
  410.23   286.93
  417.24   286.85
  429.20   286.78
  434.73   286.73
  441.27   286.73
  446.65   286.70
  452.26   286.65
  457.38   286.60
  463.65   286.55
  469.35   286.43
  475.03   286.31
  480.33   286.31
  487.18   286.23
  492.25   286.21
  498.20   286.13
  503.54   286.11
  509.18   286.08
  516.00   286.03
  520.69   285.98
  527.26   285.96
  532.86   285.94
  538.77   285.91
  544.53   285.89
  550.60   285.86
  556.15   285.86
  563.05   285.81
  567.56   285.79
  573.86   285.74
  579.45   285.71
  584.34   285.69
  589.36   285.49
  594.50   285.37
  600.91   285.25
  606.57   285.15
  616.45   285.01
  621.85   284.93
  626.83   284.93
  632.51   284.89
  638.20   284.86
  642.17   284.84
  647.72   284.81
  652.79   284.74
  658.04   284.72
  662.93   284.69
  667.96   284.55
  672.98   284.38
  678.57   284.38
  683.75   284.40
  688.06   284.48
  693.52   284.55
  698.39   284.67
  703.21   284.74
  708.66   284.81
  713.88   284.96
  718.95   285.08
  723.23   285.18
  728.39   285.23
  733.49   285.27
  738.17   285.30
  743.17   285.27
  748.55   285.25
  754.37   285.18
  758.65   285.15
  764.67   285.10
  769.68   285.03
  775.15   284.98
  781.28   284.96
  786.07   284.91
  790.31   284.86
  795.85   284.81
  802.01   284.77
  806.21   284.72
  811.82   284.67
  817.12   284.64
  822.72   284.60
  828.05   284.55
  833.88   284.50
  839.65   284.45
  844.52   284.40
  849.46   284.35
  853.85   284.35
  859.19   284.26
  864.09   284.23
  869.54   284.19
  875.08   284.14
  879.63   284.09
  885.80   284.07
  890.47   284.04
  895.29   283.99
  899.67   283.95
  905.35   283.92
  909.03   283.87
  914.70   283.87
  919.73   283.85
  924.04   283.78
  929.11   283.76
  933.39   283.71
  944.21   283.64
  949.18   283.61
  959.76   283.52
  964.78   283.52
  970.00   283.52
  974.44   283.52
  979.58   283.47
  984.66   283.42
  990.36   283.37
  994.20   283.35
 1000.07   283.32
 1003.88   283.30
 1009.42   283.25
 1013.64   283.21
 1019.07   283.16
 1023.54   283.11
 1029.33   283.06
 1032.77   283.04
 1038.64   283.01
 1043.92   282.97
 1048.76   282.94
 1053.38   282.94
 1059.72   282.85
 1064.00   282.82
 1068.98   282.80
 1075.19   282.73
 1080.39   282.68
 1086.35   282.63
 1091.74   282.63
 1096.96   282.63
 1101.86   282.59
 1106.85   282.59
 1111.57   282.54
 1117.50   282.52
 1122.44   282.47
 1127.17   282.43
 1132.77   282.38
 1136.53   282.35
 1141.92   282.33
 1146.83   282.26
 1152.15   282.24
 1157.63   282.21
 1162.91   282.16
 1167.49   282.14
 1172.69   282.12
 1178.61   282.05
 1183.47   282.00
 1189.52   281.95
 1194.83   281.95
 1200.16   281.88
 1210.56   281.83
 1214.74   281.76
 1220.50   281.71
 1224.86   281.69
 1230.91   281.64
 1235.70   281.62
 1241.81   281.57
 1246.79   281.55
 1252.62   281.50
 1257.33   281.48
 1263.42   281.48
 1273.78   281.36
 1278.13   281.36
 1284.61   281.31
 1289.44   281.29
 1295.36   281.24
 1300.33   281.22
 1305.18   281.20
 1311.41   281.15
 1316.36   281.15
 1322.05   281.08
 1327.16   281.10
 1332.62   281.08
 1347.49   281.03
 1353.44   280.96
 1357.89   280.91
 1362.95   280.87
 1368.76   280.87
 1374.27   280.84
 1378.58   280.84
 1384.64   280.77
 1389.00   280.73
 1394.40   280.68
 1400.26   280.63
 1405.54   280.61
 1410.10   280.59
 1415.81   280.54
 1421.69   280.52
 1426.60   280.47
 1432.26   280.45
 1437.80   280.42
 1443.19   280.40
 1448.84   280.33
 1454.22   280.33
 1459.51   280.28
 1465.39   280.24
 1470.28   280.21
 1475.54   280.21
 1481.46   280.14
 1486.59   280.10
 1492.33   280.03
 1497.54   280.03
 1502.99   280.00
 1507.41   280.00
 1513.59   279.98
 1518.36   279.98
 1523.09   279.93
 1529.10   279.93
 1533.32   279.89
 1539.18   279.82
 1545.23   279.86
 1550.10   279.91
 1555.45   279.91
 1560.89   279.82
 1566.50   279.84
 1571.75   279.89
 1578.07   279.86
 1582.33   279.89
 1588.72   279.82
 1593.61   279.79
 1599.60   279.72
 1604.72   279.72
 1611.62   279.68
 1616.41   279.68
 1623.48   279.65
 1626.99   279.63
 1632.87   279.61
 1637.76   279.58
 1643.85   279.54
 1649.73   279.51
 1655.22   279.51
 1661.09   279.49
 1666.53   279.49
 1672.77   279.44
 1677.57   279.47
 1684.35   279.44
 1690.27   279.44
 1697.11   279.42
 1702.53   279.40
 1708.29   279.37
 1715.15   279.35
 1720.24   279.35
 1726.16   279.30
 1731.16   279.28
 1737.39   279.26
 1743.34   279.23
 1748.47   279.19
 1754.56   279.19
 1761.10   279.14
 1767.12   279.10
 1773.92   279.05
 1781.19   279.03
 1785.55   279.00
 1791.99   278.96
 1796.84   278.96
 1804.24   278.87
 1808.69   278.87
 1816.02   278.86
 1822.28   278.82
 1828.22   278.77
 1835.53   278.75
 1841.01   278.70
 1846.94   278.68
 1852.65   278.66
 1858.56   278.61
 1864.93   278.59
 1876.40   278.54
 1882.45   278.50
 1888.39   278.47
 1893.26   278.43
 1898.82   278.38
 1910.43   278.34
 1916.04   278.29
 1921.93   278.27
 1927.67   278.24
 1933.45   278.24
 1939.74   278.18
 1944.83   278.15
 1951.44   278.11
 1957.24   278.08
 1962.75   278.06
 1968.89   278.01
 1975.14   277.99
 1981.02   277.95
 1986.60   277.92
 1992.89   277.92
 1996.94   277.88
 2002.79   277.83
 2013.53   277.79
 2018.55   277.76
 2023.65   277.72
 2029.74   277.72
 2034.88   277.65
 2041.10   277.63
 2046.34   277.63
 2052.54   277.58
 2057.16   277.56
 2063.32   277.54
 2068.03   277.51
 2074.20   277.44
 2077.98   277.47
 2084.78   277.40
 2090.53   277.38
 2096.11   277.38
 2101.90   277.33
 2106.80   277.28
 2117.66   277.24
 2123.38   277.24
 2128.59   277.24
 2133.08   277.19
 2139.21   277.17
 2144.75   277.17
 2150.81   277.12
 2155.86   277.12
 2161.53   277.08
 2166.53   277.03
 2173.30   276.99
 2178.45   276.99
 2183.71   276.96
 2190.28   276.92
 2194.64   276.90
 2201.82   276.85
 2206.04   276.80
 2210.46   276.80
 2216.97   276.74
 2222.58   276.69
 2228.48   276.69
 2233.85   276.65
 2238.66   276.65
 2244.69   276.60
 2249.98   276.58
 2254.94   276.55
 2260.45   276.53
 2265.94   276.49
 2277.56   276.40
 2283.39   276.33
 2287.32   276.30
 2293.10   276.30
 2298.19   276.26
 2304.07   276.24
 2309.32   276.21
 2314.29   276.15
 2320.28   276.10
 2324.93   276.06
 2331.44   275.99
 2336.90   275.92
 2342.53   275.87
 2347.64   275.78
 2353.82   275.74
 2359.15   275.72
 2364.76   275.67
 2370.55   275.65
 2375.95   275.65
 2381.73   275.58
 2386.98   275.54
 2393.23   275.51
 2396.89   275.51
 2404.09   275.42
 2408.72   275.44
 2414.94   275.38
 2421.20   275.35
 2426.13   275.33
 2432.30   275.31
 2437.37   275.26
 2443.80   275.22
 2449.68   275.20
 2455.30   275.17
 2460.63   275.13
 2466.79   275.08
 2472.29   275.06
 2479.33   275.02
 2484.53   275.02
 2491.30   274.95
 2496.55   274.93
 2502.68   274.88
 2508.67   274.83
 2514.49   274.83
 2520.34   274.81
 2525.51   274.79
 2531.36   274.74
 2537.10   274.74
 2542.04   274.67
 2546.87   274.67
 2553.44   274.63
 2556.77   274.65
 2563.49   274.61
 2568.65   274.58
 2573.27   274.52
 2579.63   274.49
 2586.55   274.45
 2587.84   274.49
 2594.93   274.40
 2599.56   274.42
 2603.22   274.40
 2610.55   274.33
 2615.13   274.36
 2621.27   274.31
 2625.11   274.29
 2631.02   274.29
 2636.22   274.24
 2641.77   274.20
 2646.17   274.18
 2650.32   274.06
 2656.74   274.02
 2661.71   274.04
 2666.73   274.00
 2672.29   274.00
 2677.65   273.84
 2683.35   273.75
 2689.49   273.70
 2694.48   273.70
 2699.68   273.66
 2705.98   273.64
 2710.41   273.57
 2716.45   273.52
 2722.38   273.55
 2727.69   273.55
 2734.18   273.50
 2739.13   273.55
 2744.82   273.52
 2751.49   273.46
 2758.37   273.32
 2761.66   273.30
 2767.69   273.19
 2773.05   273.16
 2779.61   273.12
 2784.93   273.05
 2791.48   272.98
 2796.66   272.96
 2802.87   272.92
 2809.23   272.87
 2814.43   272.85
 2818.25   272.83
 2824.80   272.74
 2830.44   272.69
 2833.47   272.67
 2839.84   272.63
 2845.34   272.60
 2853.22   272.56
 2856.74   272.56
 2861.58   272.54
 2868.31   272.47
 2874.83   272.49
 2881.04   272.45
 2882.79   272.40
 2889.62   272.18
 2894.17   272.07
 2899.80   272.02
 2904.26   271.93
 2910.30   271.93
 2917.98   271.86
 2924.13   271.89
 2928.35   271.93
 2932.38   271.75
 2939.11   271.60
 2944.37   271.46
 2948.76   271.44
 2954.34   271.40
 2961.12   271.42
 2965.27   271.44
 2971.83   271.39
 2977.28   271.33
 2981.68   271.26
 2987.85   271.15
 2993.31   271.06
 2998.52   271.04
 3005.18   270.99
 3012.49   270.97
 3017.02   270.97
 3029.54   270.84
 3034.05   270.79
 3040.81   270.72
 3045.67   270.66
 3052.66   270.68
 3057.57   270.68
 3063.83   270.68
 3068.63   270.77
 3076.30   270.83
 3082.11   270.90
 3092.89   270.81
 3097.69   270.63
 3103.90   270.52
 3110.89   270.48
 3116.86   270.43
 3121.86   270.45
 3128.32   270.41
 3133.34   270.43
 3139.74   270.41
 3141.82   270.43
 3145.99   270.45
 3152.22   270.50
 3159.89   270.63
 3164.87   270.79
 3171.41   270.81
 3178.09   270.83
 3181.87   270.96
 3188.43   271.19
 3194.35   271.30
 3199.40   271.36
 3204.09   271.41
 3207.09   271.45
 3211.48   271.45
 3216.33   271.47
 3219.69   271.47
 3224.73   271.47
 3231.87   271.50
 3240.42   271.58
 3246.75   271.58
 3250.53   271.61
 3255.35   271.56
 3259.94   271.54
 3266.71   271.49
 3274.21   271.45
 3280.67   271.47
 3282.02   271.54
 3287.27   271.43
 3293.38   271.38
 3300.49   271.36
 3306.84   271.36
 3313.46   271.29
 3320.04   271.34
 3325.01   271.34
 3331.80   271.31
 3338.73   271.36
 3347.22   271.36
 3350.02   271.49
 3356.02   271.47
 3361.45   271.42
 3368.12   271.42
 3375.64   271.45
 3379.25   271.51
 3391.76   271.44
 3398.06   271.42
 3403.35   271.40
 3409.25   271.49
 3416.77   271.51
 3429.25   271.53
 3447.78   271.55
 3456.18   271.55
 3460.00   271.58
 3467.89   271.51
 3474.31   271.53
 3483.39   271.44
 3499.15   271.46
 3516.60   271.44
 3535.99   271.39
 3540.81   271.39
 3549.31   271.37
 3554.38   271.46
 3562.11   271.55
 3570.30   271.55
 3573.07   271.66
 3579.72   271.57
 3592.36   271.55
 3597.92   271.50
 3605.59   271.46
 3609.96   271.48
 3616.79   271.41
 3624.96   271.37
 3629.08   271.41
 3636.67   271.37
 3643.07   271.28
 3648.93   271.28
 3655.27   271.23
 3661.90   271.19
 3668.89   271.17
 3675.40   271.10
 3682.24   271.05
 3688.13   271.05
 3694.91   270.99
 3700.77   270.96
 3706.59   270.96
 3713.93   270.85
 3720.96   270.81
 3727.91   270.79
 3733.39   270.72
 3740.69   270.67
 3745.48   270.65
 3750.28   270.63
 3757.10   270.56
 3765.65   270.56
 3773.88   270.49
 3775.76   270.54
 3780.88   270.49
 3793.49   270.40
 3798.57   270.43
 3806.02   270.36
 3812.74   270.36
 3820.59   270.45
 3829.72   270.74
 3836.02   270.78
 3842.80   270.78
 3849.28   270.78
 3857.05   270.78
 3864.43   270.78
 3869.88   270.82
 3877.25   270.85
 3884.04   270.87
 3890.95   270.93
 3895.15   270.93
 3901.58   270.89
 3909.19   270.82
 3916.99   270.78
 3921.29   270.73
 3927.00   270.69
 3931.52   270.69
 3938.26   270.60
 3941.34   270.62
 3946.17   270.60
 3952.74   270.51
 3959.20   270.44
 3967.14   270.40
 3971.84   270.40
 3976.53   270.35
 3980.16   270.33
 3985.73   270.29
 3993.81   270.22
 4000.94   270.17
 4010.16   270.15
 4016.00   270.13
 4024.06   270.08
 4029.31   270.08
 4036.86   270.02
 4043.97   269.99
 4052.55   269.95
 4059.77   269.88
 4061.87   269.93
 4067.26   269.90
 4074.04   269.90
 4081.53   269.88
 4088.81   269.88
 4094.07   269.88
 4099.64   269.84
 4105.32   269.79
 4113.61   269.70
 4117.22   269.70
 4122.96   269.68
 4130.66   269.61
 4137.41   269.61
 4145.18   269.54
 4152.02   269.52
 4155.29   269.54
 4162.05   269.52
 4168.03   269.50
 4175.17   269.45
 4179.72   269.48
 4185.19   269.43
 4191.78   269.36
 4197.44   269.36
 4202.94   269.30
 4209.57   269.23
 4216.37   269.21
 4223.74   269.16
 4232.11   269.10
 4235.19   269.14
 4240.14   269.10
 4246.76   269.05
 4254.91   269.03
 4262.03   268.96
 4273.25   268.96
 4279.16   268.89
 4285.86   268.83
 4293.98   268.78
 4302.12   268.74
 4308.09   268.71
 4311.53   268.78
 4316.49   268.69
 4323.51   268.65
 4331.83   268.60
 4338.91   268.53
 4344.85   268.49
 4346.71   268.51
 4351.60   268.45
 4359.46   268.38
 4367.36   268.36
 4375.34   268.29
 4377.51   268.31
 4381.43   268.31
 4386.69   268.22
 4394.93   268.13
 4402.49   268.13
 4407.46   268.09
 4411.91   268.09
 4418.72   268.04
 4434.09   267.88
 4439.93   267.86
 4443.05   267.86
 4447.83   267.79
 4454.19   267.75
 4461.25   267.70
 4466.96   267.62
 4474.25   267.57
 4481.05   267.49
 4486.70   267.45
 4492.06   267.43
 4498.64   267.38
 4505.50   267.31
 4512.23   267.24
 4520.60   267.15
 4529.28   267.04
 4536.65   266.99
 4541.24   266.99
 4548.38   266.90
 4555.81   266.83
 4562.18   266.81
 4567.79   266.74
 4572.87   266.72
 4579.19   266.65
 4592.75   266.54
 4601.26   266.47
 4608.96   266.38
 4620.74   266.36
 4626.70   266.26
 4633.86   266.17
 4641.29   266.15
 4645.69   266.13
 4651.33   266.08
 4657.07   266.04
 4663.02   265.97
 4669.14   265.94
 4685.00   265.83
 4693.24   265.83
 4697.36   265.85
 4703.07   265.88
 4709.26   265.83
 4716.09   265.81
 4724.36   265.74
 4740.67   265.69
 4745.59   265.67
 4751.26   265.62
 4757.62   265.62
 4765.59   265.58
 4773.02   265.51
 4781.29   265.46
 4786.05   265.46
 4795.32   265.46
 4800.89   265.42
 4807.52   265.35
 4815.51   265.30
 4824.22   265.23
 4832.01   265.19
 4837.24   265.19
 4843.59   265.12
 4847.24   265.09
 4850.68   265.07
 4855.03   265.05
 4859.40   265.03
 4862.81   265.00
 4867.23   264.98
 4872.37   264.96
 4875.99   265.00
 4879.87   264.98
 4885.57   264.89
 4893.10   264.86
 4904.36   264.79
 4906.83   264.82
 4911.66   264.75
 4915.79   264.70
 4919.49   264.73
 4924.91   264.66
 4929.30   264.68
 4933.49   264.63
 4937.56   264.63
 4940.78   264.59
 4945.45   264.54
 4951.14   264.50
 4959.31   264.40
 4968.26   264.38
 4973.46   264.36
 4982.29   264.26
 4990.04   264.20
 4997.75   264.17
 5003.54   264.08
 5008.71   264.06
 5013.99   264.03
 5019.74   263.99
 5026.03   263.92
 5033.41   263.87
 5040.02   263.80
 5076.62   263.52
 5083.19   263.48
 5088.70   263.46
 5094.00   263.45
 5100.73   263.36
 5108.74   263.29
 5115.89   263.27
 5139.76   263.13
 5148.51   263.08
 5164.70   262.97
 5170.91   262.92
 5176.52   262.90
 5179.98   262.85
 5185.41   262.85
 5192.24   262.78
 5199.63   262.73
 5208.23   262.66
 5214.10   262.66
 5215.33   262.71
 5228.25   262.59
 5234.19   262.55
 5240.24   262.50
 5246.57   262.50
 5253.81   262.41
 5256.37   262.43
 5261.43   262.43
 5267.36   262.38
 5273.98   262.34
 5277.95   262.34
 5286.38   262.22
 5293.45   262.17
 5302.02   262.13
 5311.29   262.05
 5319.65   262.01
 5326.50   261.96
 5333.52   261.91
 5340.24   261.91
 5345.08   261.87
 5351.62   261.82
 5358.84   261.77
 5366.84   261.70
 5375.62   261.66
 5384.32   261.61
 5391.03   261.56
 5395.72   261.54
 5420.37   261.37
 5427.91   261.37
 5434.77   261.40
 5442.64   261.35
 5451.32   261.28
 5459.49   261.25
 5463.83   261.25
 5470.62   261.21
 5477.54   261.18
 5485.58   261.11
 5491.32   261.04
 5498.48   260.99
 5502.05   261.04
 5505.45   260.97
 5511.73   260.95
 5516.26   260.97
 5519.74   260.97
 5524.36   260.99
 5529.81   260.97
 5535.04   260.90
 5541.49   260.83
 5548.76   260.78
 5557.33   260.78
 5566.03   260.71
 5572.98   260.68
 5577.94   260.64
 5581.70   260.66
 5584.99   260.64
 5589.01   260.59
 5591.72   260.59
 5595.51   260.59
 5606.63   260.49
 5611.15   260.47
 5615.67   260.40
 5618.35   260.37
 5622.59   260.37
 5626.30   260.30
 5630.97   260.26
 5636.12   260.23
 5641.07   260.16
 5643.91   260.16
 5647.94   260.16
 5651.91   260.11
 5655.91   260.11
 5659.48   260.11
 5663.20   260.06
 5668.28   260.04
 5672.75   260.02
 5676.76   259.97
 5679.86   259.99
 5684.17   259.94
 5689.00   259.92
 5692.85   259.90
 5697.44   259.90
 5702.12   259.87
 5706.07   259.87
 5709.42   259.90
 5713.02   259.85
 5717.74   259.82
 5720.79   259.82
 5726.40   259.73
 5731.09   259.73
 5734.06   259.73
 5739.66   259.68
 5745.40   259.58
 5751.91   259.56
 5759.61   259.49
 5768.07   259.41
 5773.26   259.39
 5778.97   259.34
 5785.03   259.29
 5790.21   259.29
 5793.67   259.22
 5797.20   259.20
 5804.30   259.17
 5812.63   259.05
 5819.45   259.00
 5823.95   258.98
 5827.68   258.98
 5832.72   258.93
 5839.07   258.88
 5847.58   258.85
 5856.64   258.76
 5863.47   258.76
 5868.62   258.71
 5871.44   258.66
 5875.02   258.63
 5881.41   258.58
 5888.05   258.56
 5893.03   258.56
 5897.20   258.56
 5903.30   258.53
 5908.08   258.49
 5911.41   258.46
 5914.78   258.44
 5919.69   258.39
 5923.08   258.41
 5927.76   258.34
 5932.00   258.31
 5935.75   258.26
 5938.57   258.26
 5943.05   258.24
 5947.87   258.22
 5951.23   258.14
 5956.53   258.12
 5961.55   258.14
 5964.67   258.14
 5969.57   258.12
 5975.42   258.09
 5982.42   258.02
 5987.02   258.02
 5990.30   258.07
 5993.80   257.99
 5998.32   257.97
 6003.45   257.97
 6006.90   257.97
 6009.44   257.97
 6014.29   257.92
 6018.23   257.87
 6023.14   257.87
 6028.48   257.87
 6031.09   257.89
 6035.36   257.84
 6040.90   257.79
 6048.56   257.77
 6056.14   257.79
 6059.71   257.84
 6063.43   257.84
 6068.75   257.77
 6073.82   257.79
 6078.25   257.74
 6082.37   257.82
 6086.55   257.82
 6090.48   257.77
 6094.04   257.79
 6099.26   257.84
 6103.61   257.84
 6107.17   257.84
 6111.73   257.79
 6116.22   257.72
 6119.73   257.69
 6123.97   257.72
 6128.40   257.67
 6131.09   257.64
 6134.87   257.62
 6139.00   257.57
 6141.99   257.54
 6146.59   257.52
 6150.25   257.49
 6152.15   257.47
 6155.77   257.44
 6161.73   257.37
 6167.18   257.29
 6172.67   257.29
 6177.46   257.24
 6180.75   257.24
 6185.03   257.22
 6188.16   257.19
 6192.40   257.14
 6196.43   257.12
 6203.00   257.02
 6208.55   256.99
 6213.73   256.97
 6217.47   256.89
 6220.66   256.87
 6224.98   256.79
 6228.33   256.77
 6234.24   256.72
 6238.77   256.72
 6242.35   256.64
 6246.98   256.64
 6252.30   256.59
 6255.78   256.59
 6259.90   256.54
 6264.64   256.47
 6270.03   256.44
 6274.39   256.39
 6280.99   256.29
 6293.84   256.19
 6305.98   256.11
 6312.17   256.01
 6318.21   255.94
 6325.44   255.91
 6330.10   255.89
 6334.72   255.83
 6338.95   255.75
 6342.04   255.68
 6347.39   255.64
 6351.69   255.66
 6355.08   255.68
 6358.25   255.64
 6364.04   255.57
 6368.65   255.53
 6373.69   255.46
 6379.05   255.46
 6383.36   255.42
 6387.83   255.37
 6390.75   255.37
 6395.57   255.33
 6400.76   255.29
 6405.01   255.26
 6409.57   255.22
 6412.84   255.17
 6415.96   255.15
 6420.63   255.09
 6424.82   255.06
 6429.38   255.04
 6432.96   255.02
 6435.42   255.02
 6441.08   255.02
 6446.32   254.95
 6450.26   254.93
 6454.04   254.93
 6457.83   254.89
 6462.03   254.87
 6465.70   254.84
 6470.88   254.82
 6474.22   254.80
 6478.74   254.78
 6484.25   254.76
 6488.07   254.71
 6491.85   254.69
 6495.88   254.65
 6500.23   254.60
 6502.84   254.58
 6506.85   254.54
 6511.63   254.51
 6514.65   254.51
 6519.42   254.45
 6523.02   254.47
 6526.54   254.45
 6529.71   254.43
 6535.18   254.36
 6539.26   254.36
 6543.49   254.32
 6547.84   254.32
 6550.61   254.32
 6556.11   254.23
 6560.64   254.18
 6565.16   254.23
 6568.38   254.18
 6572.04   254.18
 6577.04   254.14
 6580.75   254.12
 6584.76   254.10
 6589.14   254.07
 6591.81   254.05
 6596.74   253.99
 6602.20   253.99
 6606.86   254.05
 6610.55   254.05
 6615.05   254.05
 6618.81   254.01
 6622.76   253.96
 6627.56   253.92
 6631.38   253.92
 6635.75   253.90
 6641.56   253.83
 6645.30   253.81
 6648.13   253.81
 6652.05   253.74
 6657.01   253.70
 6661.91   253.66
 6667.94   253.59
 6671.57   253.57
 6675.50   253.55
 6680.19   253.46
 6683.01   253.48
 6688.19   253.40
 6693.42   253.42
 6696.69   253.37
 6701.36   253.31
 6705.52   253.26
 6709.88   253.24
 6714.72   253.18
 6718.10   253.18
 6721.67   253.15
 6726.16   253.11
 6729.99   253.11
 6734.46   253.18
 6739.20   253.15
 6742.04   253.18
 6746.52   253.18
 6751.22   253.11
 6754.47   253.09
 6758.42   253.04
 6762.89   253.00
 6766.15   253.00
 6772.33   252.93
 6777.54   252.91
 6782.35   252.82
 6787.17   252.80
 6790.98   252.76
 6794.83   252.69
 6799.15   252.69
 6803.57   252.62
 6808.47   252.58
 6812.99   252.54
 6817.27   252.49
 6823.13   252.47
 6826.54   252.47
 6830.93   252.40
 6836.08   252.34
 6839.84   252.34
 6846.56   252.23
 6851.73   252.23
 6857.48   252.19
 6863.15   252.12
 6867.23   252.08
 6870.67   252.10
 6875.95   252.01
 6883.07   251.92
 6889.00   251.90
 6892.15   251.88
 6896.94   251.84
 6904.58   251.77
 6914.33   251.68
 6920.47   251.66
 6925.28   251.68
 6929.08   251.77
 6933.65   251.73
 6941.20   251.66
 6946.98   251.72
 6954.09   251.70
 6960.08   251.70
 6965.41   251.66
 6967.93   251.64
 6972.26   251.59
 6978.11   251.55
 6988.10   251.53
 6990.78   251.53
 6996.75   251.42
 7001.18   251.40
 7005.10   251.40
 7008.33   251.40
 7013.44   251.37
 7017.33   251.37
 7021.63   251.33
 7026.97   251.33
 7030.24   251.29
 7035.39   251.22
 7040.42   251.18
 7044.27   251.18
 7049.14   251.09
 7054.64   251.05
 7059.01   251.03
 7064.54   250.96
 7070.92   250.89
 7075.89   250.89
 7080.32   250.81
 7086.03   250.81
 7091.07   250.78
 7094.82   250.76
 7100.84   250.70
 7106.89   250.63
 7113.26   250.57
 7119.12   250.52
 7123.84   250.50
 7127.83   250.48
 7131.92   250.39
 7138.95   250.35
 7147.93   250.31
 7156.66   250.24
 7160.22   250.24
 7165.75   250.17
 7172.27   250.11
 7179.40   250.02
 7193.58   249.93
 7199.95   249.91
 7207.13   249.83
 7212.47   249.72
 7217.10   249.69
 7222.28   249.65
 7228.47   249.63
 7233.04   249.63
 7237.07   249.61
 7242.77   249.56
 7246.42   249.61
 7252.24   249.45
 7257.27   249.41
 7261.39   249.39
 7267.49   249.32
 7273.65   249.24
 7278.53   249.19
 7283.04   249.13
 7289.64   249.06
 7296.19   249.02
 7302.72   248.98
 7307.83   248.91
 7313.70   248.87
 7320.01   248.76
 7327.83   248.69
 7334.68   248.65
 7340.11   248.58
 7342.38   248.52
 7345.64   248.49
 7350.16   248.43
 7356.50   248.41
 7360.95   248.41
 7364.81   248.38
 7369.82   248.34
 7373.93   248.34
 7378.14   248.27
 7382.94   248.25
 7386.75   248.25
 7391.84   248.19
 7395.59   248.19
 7400.05   248.19
 7405.35   248.12
 7409.96   248.12
 7415.87   248.05
 7419.99   248.03
 7423.43   248.01
 7429.63   247.97
 7433.41   247.94
 7437.84   247.90
 7443.07   247.83
 7446.26   247.88
 7450.84   247.83
 7455.36   247.77
 7459.31   247.79
 7463.27   247.72
 7467.61   247.66
 7471.95   247.68
 7476.29   247.61
 7480.95   247.55
 7484.34   247.55
 7488.14   247.53
 7492.81   247.46
 7496.86   247.46
 7500.96   247.44
 7505.84   247.37
 7509.62   247.35
 7513.18   247.33
 7518.46   247.26
 7522.29   247.26
 7526.71   247.20
 7531.70   247.17
 7536.09   247.15
 7541.34   247.06
 7544.42   247.02
 7549.31   247.00
 7552.85   246.97
 7555.27   246.97
 7559.37   246.91
 7564.39   246.82
 7569.65   246.78
 7575.04   246.82
 7577.58   246.80
 7581.47   246.71
 7586.16   246.64
 7589.40   246.62
 7594.85   246.58
 7598.58   246.56
 7603.09   246.51
 7607.56   246.45
 7611.68   246.42
 7617.70   246.38
 7620.32   246.38
 7624.02   246.36
 7630.16   246.25
 7634.83   246.22
 7638.36   246.22
 7644.09   246.16
 7647.31   246.16
 7651.04   246.13
 7655.32   246.07
 7660.05   246.07
 7662.35   246.05
 7666.77   245.96
 7672.85   245.85
 7677.08   245.85
 7682.12   245.80
 7686.58   245.78
 7689.32   245.78
 7693.48   245.71
 7698.57   245.67
 7701.63   245.74
 7705.95   245.65
 7710.32   245.58
 7713.42   245.56
 7718.26   245.49
 7722.53   245.45
 7725.26   245.45
 7729.05   245.36
 7733.29   245.29
 7738.33   245.29
 7740.56   245.34
 7744.46   245.25
 7749.98   245.16
 7753.93   245.11
 7757.56   245.11
 7766.12   245.03
 7771.30   244.96
 7775.19   244.98
 7778.12   244.96
 7781.81   244.96
 7786.26   244.91
 7789.78   244.87
 7794.70   244.80
 7798.99   244.76
 7807.60   244.69
 7811.79   244.65
 7815.66   244.63
 7820.09   244.56
 7823.42   244.60
 7827.78   244.56
 7831.72   244.49
 7834.55   244.49
 7840.17   244.42
 7843.54   244.40
 7847.98   244.38
 7852.62   244.33
 7856.18   244.31
 7861.41   244.24
 7864.78   244.31
 7869.21   244.24
 7873.91   244.22
 7877.06   244.27
 7881.96   244.18
 7885.94   244.15
 7890.23   244.15
 7894.71   244.06
 7898.43   244.08
 7903.28   244.04
 7906.65   244.06
 7910.02   244.04
 7915.27   243.99
 7918.70   243.95
 7923.80   243.90
 7927.87   243.95
 7931.52   243.93
 7936.17   243.88
 7940.32   243.88
 7944.96   243.86
 7949.75   243.86
 7952.57   243.88
 7957.72   243.79
 7963.04   243.74
 7965.80   243.77
 7970.27   243.70
 7973.34   243.68
 7977.57   243.65
 7982.32   243.59
 7985.54   243.56
 7990.63   243.59
 7993.30   243.52
 7997.66   243.47
 8002.07   243.45
 8006.00   243.41
 8010.72   243.36
 8014.03   243.34
 8018.22   243.29
 8021.92   243.25
 8027.02   243.25
 8031.25   243.27
 8033.92   243.27
 8038.37   243.22
 8043.19   243.15
 8046.74   243.11
 8051.92   243.09
 8055.50   243.04
 8060.07   243.00
 8063.61   242.97
 8066.09   242.95
 8071.59   242.93
 8075.71   242.88
 8080.55   242.81
 8083.51   242.79
 8087.50   242.75
 8091.51   242.70
 8095.19   242.68
 8099.29   242.65
 8102.36   242.63
 8106.11   242.59
 8110.88   242.59
 8113.96   242.56
 8118.73   242.52
 8123.21   242.47
 8126.46   242.45
 8131.55   242.36
 8135.24   242.36
 8137.57   242.40
 8143.17   242.29
 8147.64   242.24
 8151.78   242.26
 8155.88   242.20
 8159.18   242.17
 8163.84   242.10
 8167.04   242.06
 8171.81   241.99
 8174.94   242.01
 8179.47   241.99
 8184.30   241.92
 8186.58   241.90
 8191.24   241.87
 8196.43   241.81
 8200.92   241.78
 8203.53   241.74
 8207.82   241.64
 8211.53   241.62
 8215.96   241.58
 8221.20   241.55
 8223.41   241.60
 8227.31   241.53
 8231.66   241.48
 8235.09   241.48
 8239.13   241.46
 8243.36   241.46
 8246.53   241.60
 8251.09   241.60
 8254.26   241.57
 8259.18   241.60
 8263.24   241.57
 8266.97   241.55
 8271.68   241.55
 8275.19   241.50
 8279.86   241.46
 8283.46   241.46
 8287.30   241.43
 8291.93   241.36
 8295.44   241.39
 8300.61   241.32
 8303.17   241.32
 8307.64   241.29
 8312.03   241.27
 8316.94   241.20
 8320.59   241.20
 8323.50   241.18
 8328.81   241.11
 8332.59   241.06
 8337.03   241.04
 8341.91   240.99
 8345.37   240.97
 8348.97   240.97
 8353.58   240.97
 8356.74   240.97
 8361.84   240.90
 8365.50   240.92
 8368.61   240.90
 8374.14   240.85
 8377.92   240.83
 8381.97   240.81
 8386.36   240.78
 8389.65   240.76
 8394.88   240.74
 8397.74   240.69
 8402.76   240.60
 8407.54   240.53
 8411.35   240.55
 8416.04   240.50
 8419.95   240.43
 8423.60   240.41
 8428.40   240.36
 8431.41   240.39
 8436.24   240.36
 8440.06   240.34
 8444.41   240.29
 8449.93   240.25
 8453.56   240.22
 8457.92   240.20
 8462.26   240.15
 8465.56   240.15
 8470.72   240.10
 8474.54   240.10
 8478.84   240.13
 8482.72   240.06
 8487.46   240.01
 8491.89   239.96
 8495.59   239.96
 8500.69   239.87
 8504.92   239.89
 8509.40   239.84
 8514.31   239.79
 8516.83   239.79
 8522.10   239.77
 8526.09   239.72
 8531.14   239.70
 8535.24   239.65
 8540.37   239.63
 8545.25   239.58
 8549.81   239.56
 8552.81   239.58
 8558.31   239.51
 8562.56   239.48
 8567.72   239.48
 8572.25   239.46
 8575.48   239.46
 8580.17   239.41
 8583.59   239.41
 8589.29   239.39
 8594.31   239.34
 8598.94   239.36
 8604.17   239.34
 8606.45   239.36
 8611.73   239.39
 8618.33   239.27
 8622.30   239.27
 8626.15   239.24
 8630.90   239.20
 8634.26   239.15
 8640.10   239.12
 8643.72   239.15
 8649.00   239.08
 8652.67   239.05
 8657.40   239.08
 8662.81   239.00
 8666.52   238.98
 8671.94   238.93
 8675.37   238.91
 8679.75   238.86
 8684.10   238.81
 8688.23   238.79
 8693.29   238.74
 8697.08   238.72
 8702.17   238.69
 8705.60   238.67
 8710.27   238.62
 8715.88   238.52
 8719.12   238.55
 8724.34   238.47
 8729.43   238.43
 8733.57   238.43
 8739.01   238.35
 8742.59   238.33
 8748.21   238.30
 8751.97   238.28
 8757.00   238.26
 8762.07   238.23
 8766.24   238.23
 8770.50   238.18
 8775.96   238.11
 8779.60   238.11
 8784.19   238.09
 8790.23   238.06
 8793.61   238.13
 8798.73   238.06
 8803.06   238.01
 8807.02   237.96
 8812.97   237.91
 8816.67   237.91
 8820.45   237.87
 8826.67   237.77
 8830.54   237.77
 8835.79   237.69
 8840.75   237.72
 8845.04   237.64
 8849.01   237.64
 8854.46   237.57
 8857.74   237.57
 8863.04   237.50
 8867.08   237.45
 8871.93   237.42
 8877.05   237.37
 8880.95   237.37
 8886.48   237.35
 8889.67   237.33
 8895.20   237.23
 8900.13   237.20
 8904.11   237.15
 8910.02   237.10
 8913.74   237.08
 8918.35   237.03
 8923.96   236.93
 8926.95   236.98
 8931.62   236.98
 8935.75   236.93
 8940.92   236.88
 8946.32   236.83
 8949.31   236.83
 8955.09   236.76
 8958.73   236.71
 8963.15   236.68
 8969.26   236.63
 8972.27   236.61
 8976.89   236.63
 8982.05   236.53
 8985.32   236.51
 8991.28   236.46
 8994.71   236.43
 8999.23   236.38
 9004.44   236.31
 9008.33   236.31
 9013.78   236.25
 9018.15   236.23
 9023.26   236.20
 9026.82   236.15
 9031.93   236.08
 9036.98   236.03
 9040.09   236.03
 9045.69   235.95
 9048.89   235.98
 9052.67   235.92
 9059.07   235.85
 9063.76   235.80
 9067.65   235.85
 9072.73   235.77
 9076.74   235.70
 9081.56   235.67
 9086.84   235.64
 9090.37   235.67
 9095.09   235.59
 9100.63   235.52
 9104.90   235.52
 9109.98   235.44
 9113.03   235.47
 9118.41   235.39
 9123.21   235.29
 9128.17   235.24
 9133.60   235.21
 9137.18   235.21
 9141.34   235.16
 9146.30   235.11
 9150.35   235.08
 9156.02   235.05
 9159.57   235.08
 9165.14   235.00
 9168.26   234.95
 9173.09   234.87
 9178.68   234.80
 9183.68   234.77
 9187.93   234.74
 9191.57   234.72
 9197.58   234.67
 9201.66   234.61
 9207.15   234.61
 9211.52   234.56
 9215.90   234.51
 9220.56   234.48
 9224.69   234.43
 9229.39   234.41
 9234.39   234.35
 9238.16   234.30
 9243.60   234.25
 9247.90   234.20
 9252.04   234.20
 9257.53   234.12
 9260.93   234.09
 9266.11   234.04
 9270.20   233.99
 9275.69   233.93
 9279.32   233.91
 9283.25   233.91
 9288.40   233.83
 9292.49   233.78
 9298.15   233.78
 9301.53   233.76
 9305.91   233.73
 9310.96   233.65
 9314.64   233.65
 9319.99   233.60
 9323.92   233.57
 9328.98   233.51
 9334.54   233.46
 9338.16   233.46
 9343.02   233.43
 9347.04   233.38
 9351.34   233.35
 9356.13   233.30
 9359.46   233.30
 9364.57   233.27
 9368.81   233.25
 9372.58   233.19
 9377.50   233.16
 9382.69   233.11
 9388.21   233.11
 9390.59   233.08
 9395.26   233.00
 9399.61   232.92
 9402.87   232.89
 9407.89   232.89
 9412.16   232.87
 9416.48   232.84
 9421.34   232.78
 9424.70   232.73
 9430.22   232.73
 9434.07   232.70
 9437.52   232.70
 9442.27   232.62
 9445.33   232.62
 9450.45   232.54
 9454.76   232.51
 9459.37   232.48
 9463.79   232.46
 9467.38   232.43
 9472.61   232.40
 9476.50   232.35
 9480.64   232.32
 9486.26   232.26
 9489.17   232.29
 9493.94   232.21
 9499.02   232.18
 9503.07   232.15
 9507.53   232.12
 9511.26   232.12
 9515.86   232.15
 9520.09   232.07
 9523.96   232.01
 9528.99   231.99
 9533.34   231.96
 9535.88   231.96
 9541.45   231.90
 9544.93   231.87
 9549.51   231.85
 9554.52   231.82
 9558.93   231.82
 9564.07   231.76
 9567.97   231.73
 9574.16   231.68
 9578.02   231.65
 9583.06   231.62
 9587.37   231.59
 9592.20   231.57
 9597.74   231.48
 9601.45   231.48
 9605.11   231.48
 9610.69   231.40
 9614.77   231.34
 9620.09   231.29
 9624.10   231.26
 9627.52   231.20
 9633.39   231.14
 9636.96   231.12
 9641.13   231.09
 9646.66   231.03
 9650.03   231.06
 9655.71   230.97
 9659.94   230.94
 9665.03   230.89
 9670.44   230.80
 9673.91   230.80
 9679.59   230.72
 9684.25   230.66
 9689.01   230.63
 9692.10   230.60
 9697.03   230.57
 9701.40   230.57
 9705.61   230.49
 9711.12   230.40
 9714.51   230.40
 9719.93   230.34
 9722.93   230.34
 9727.75   230.28
 9733.47   230.20
 9737.14   230.20
 9742.21   230.17
 9746.29   230.11
 9749.76   230.11
 9756.31   230.05
 9760.52   230.02
 9764.50   230.02
 9768.67   229.96
 9772.37   229.94
 9777.17   229.88
 9781.56   229.85
 9785.23   229.82
 9790.24   229.73
 9793.61   229.70
 9797.79   229.70
 9802.74   229.64
 9806.40   229.64
 9811.50   229.55
 9815.17   229.49
 9819.90   229.46
 9824.49   229.43
 9829.33   229.43
 9833.03   229.35
 9837.54   229.29
 9841.23   229.29
 9845.84   229.23
 9851.11   229.20
 9854.41   229.14
 9860.60   229.08
 9865.30   229.08
 9868.52   229.08
 9873.55   229.08
 9876.83   229.02
 9881.63   228.96
 9885.23   228.96
 9889.74   228.87
 9894.65   228.84
 9898.81   228.75
 9903.63   228.72
 9907.39   228.72
 9912.62   228.63
 9915.55   228.63
 9919.16   228.63
 9924.61   228.57
 9928.53   228.50
 9934.02   228.44
 9937.05   228.44
 9941.46   228.41
 9947.07   228.41
 9949.42   228.41
 9954.39   228.32
 9958.92   228.32
 9963.70   228.26
 9967.24   228.26
 9971.32   228.20
 9976.43   228.14
 9979.66   228.11
 9984.04   228.08
 9988.36   228.08
 9991.35   228.11
 9996.37   227.98
10000.25   228.01
10004.83   227.95
10009.46   227.92
10012.72   227.86
10018.33   227.83
10022.31   227.83
10027.48   227.74
10031.17   227.77
10036.31   227.70
10040.44   227.70
10043.11   227.70
10048.38   227.61
10051.69   227.61
10057.06   227.52
10061.20   227.49
10065.24   227.52
10069.57   227.42
10072.52   227.42
10078.12   227.39
10082.66   227.39
10085.88   227.42
10090.97   227.33
10094.00   227.36
10098.65   227.23
10103.41   227.23
10106.21   227.20
10111.01   227.11
10113.97   227.14
10118.05   227.11
10122.93   227.01
10126.76   227.01
10131.55   226.98
10134.60   226.95
10139.41   226.85
10143.20   226.85
10147.83   226.82
10152.03   226.79
10155.92   226.76
10161.06   226.72
10163.89   226.72
10168.89   226.66
10172.67   226.66
10177.26   226.63
10180.80   226.56
10184.50   226.53
10189.47   226.50
10192.36   226.56
10197.92   226.47
10201.75   226.50
10205.49   226.50
10210.03   226.53
10212.73   226.47
10217.18   226.43
10220.41   226.43
10225.14   226.30
10229.91   226.27
10232.55   226.30
10238.08   226.27
10241.17   226.24
10246.29   226.24
10249.97   226.30
10254.64   226.17
10259.75   226.17
10262.64   226.17
10267.78   226.11
10271.19   226.17
10276.24   226.08
10279.75   226.07
10284.79   226.04
10287.89   226.04
10292.28   225.98
10297.87   225.94
10302.38   225.88
10306.30   225.81
10309.45   225.88
10314.01   225.84
10317.76   225.74
10321.75   225.78
10326.65   225.78
10330.51   225.78
10333.69   225.84
10338.39   225.84
10342.18   225.84
10346.33   225.84
10351.75   225.78
10354.52   225.81
10359.39   225.78
10363.40   225.74
10367.08   225.67
10371.99   225.61
10374.73   225.67
10379.10   225.57
10383.58   225.54
10387.52   225.47
10393.17   225.44
10395.97   225.47
10400.77   225.37
10404.67   225.34
10409.01   225.30
10413.84   225.30
10417.31   225.27
10421.22   225.25
10425.94   225.20
10429.28   225.15
10434.87   225.11
10438.36   225.04
10443.40   224.99
10447.97   224.95
10450.64   224.92
10455.77   224.95
10459.98   224.90
10463.16   224.85
10468.48   224.83
10472.17   224.76
10476.90   224.69
10481.21   224.67
10484.02   224.65
10489.67   224.64
10493.87   224.55
10498.51   224.55
10502.17   224.53
10506.06   224.51
10511.64   224.48
10514.60   224.37
10519.37   224.37
10522.62   224.35
10527.39   224.32
10531.63   224.23
10535.29   224.23
10540.45   224.21
10543.76   224.21
10549.06   224.16
10552.76   224.10
10558.33   224.10
10562.63   224.01
10566.83   223.96
10570.35   223.94
10574.00   223.94
10578.16   223.92
10581.06   223.87
10586.84   223.85
10590.65   223.83
10595.45   223.78
10599.13   223.71
10604.10   223.69
10608.25   223.63
10611.66   223.56
10617.06   223.58
10621.45   223.49
10624.17   223.45
10628.99   223.49
10631.81   223.47
10636.16   223.40
10641.09   223.34
10643.86   223.31
10648.72   223.29
10651.88   223.29
10656.79   223.23
10660.56   223.18
10665.53   223.23
10668.75   223.22
10672.89   223.22
10678.25   223.18
10681.81   223.11
10687.36   223.14
10690.87   223.03
10695.93   223.05
10700.25   222.96
10703.35   222.96
10707.06   223.00
10711.70   222.96
10715.79   222.96
10719.75   222.89
10723.31   222.87
10726.47   222.92
10730.34   222.83
10735.15   222.85
10738.06   222.76
10743.09   222.79
10747.06   222.74
10751.48   222.74
10756.38   222.72
10758.83   222.65
10762.84   222.63
10767.55   222.63
10771.62   222.55
10775.61   222.52
10777.97   222.44
10781.75   222.46
10787.99   222.42
10790.39   222.42
10795.09   222.39
10799.00   222.35
10802.87   222.37
10808.27   222.37
10811.19   222.35
10815.93   222.37
10819.85   222.33
10823.47   222.35
10829.43   222.29
10832.56   222.26
10836.11   222.33
10840.28   222.22
10842.91   222.20
10848.45   222.20
10851.97   222.09
10856.86   222.11
10860.74   222.05
10864.31   222.05
10869.16   222.01
10872.04   222.01
10876.82   222.01
10881.31   221.94
10883.84   221.92
10888.03   221.86
10891.76   221.88
10895.56   221.79
10900.03   221.79
10903.21   221.73
10908.90   221.71
10913.68   221.67
10916.63   221.65
10922.34   221.62
10928.75   221.48
10933.78   221.43
10939.29   221.41
10945.50   221.45
10949.07   221.43
10954.99   221.43
10961.08   221.43
10965.02   221.43
10971.64   221.45
10976.84   221.37
10982.47   221.31
10987.30   221.26
10993.09   221.22
10997.97   221.16
11002.16   221.10
11009.00   221.06
11015.92   220.95
11019.81   220.93
11023.35   220.91
11029.58   220.87
11034.41   220.81
11039.12   220.77
11042.54   220.72
11046.07   220.72
11050.93   220.70
11057.45   220.64
11061.27   220.56
11065.79   220.54
11070.74   220.52
11073.75   220.42
11077.81   220.35
11083.00   220.31
11087.83   220.27
11091.54   220.25
11096.72   220.19
11100.28   220.13
11105.18   220.07
11109.71   220.05
11113.11   220.05
11118.30   220.03
11123.35   219.99
11127.96   219.93
11131.29   219.86
11136.19   219.82
11141.62   219.78
11144.25   219.74
11148.07   219.74
11153.26   219.70
11156.27   219.66
11160.75   219.62
11166.37   219.56
11169.88   219.52
11174.17   219.50
11180.05   219.48
11185.34   219.40
11188.63   219.34
11191.46   219.30
11196.63   219.30
11200.42   219.26
11204.88   219.24
11208.46   219.18
11212.71   219.14
11217.05   219.10
11220.89   219.10
11225.72   219.10
11228.71   219.12
11232.88   219.10
11238.16   219.06
11241.63   219.06
11246.86   219.02
11249.66   218.96
11254.04   218.96
11259.25   218.90
11262.51   218.86
11267.56   218.86
11271.26   218.80
11276.31   218.79
11280.23   218.75
11285.48   218.71
11288.77   218.64
11293.25   218.65
11298.13   218.58
11301.59   218.54
11306.93   218.55
11310.52   218.46
11314.84   218.46
11319.42   218.40
11322.65   218.44
11327.46   218.40
11330.71   218.36
11335.35   218.32
11340.41   218.28
11343.22   218.22
11347.84   218.18
11351.98   218.14
11355.63   218.10
11360.75   218.08
11364.09   218.04
11369.25   218.02
11372.76   217.98
11378.24   217.92
11382.09   217.88
11386.28   217.82
11391.78   217.84
11394.94   217.72
11399.77   217.76
11404.85   217.68
11407.97   217.68
11412.67   217.68
11416.01   217.63
11419.53   217.57
11424.61   217.57
11427.44   217.49
11432.84   217.47
11436.31   217.45
11441.59   217.37
11445.28   217.37
11447.26   217.31
11451.20   217.43
11455.94   217.33
11459.28   217.25
11464.66   217.23
11468.16   217.16
11473.17   217.20
11476.58   217.08
11481.57   217.10
11485.32   217.02
11489.84   217.06
11496.11   217.00
11500.42   216.98
11504.86   216.87
11509.24   216.90
11513.19   216.79
11518.50   216.77
11521.68   216.75
11526.50   216.81
11531.48   216.88
11535.93   216.90
11542.35   216.96
11545.98   216.83
11551.78   216.71
11557.58   216.77
11561.02   216.67
11566.48   216.61
11572.67   216.63
11576.82   216.58
11582.84   216.56
11586.57   216.57
11591.48   216.57
11598.23   216.59
11601.85   216.48
11607.94   216.42
11613.00   216.42
11617.85   216.29
11623.72   216.32
11629.15   216.25
11634.70   216.12
11639.37   216.19
11642.92   216.11
11647.23   216.06
11653.83   216.02
11657.81   215.96
11661.75   215.92
11667.99   215.96
11672.55   215.81
11678.52   215.83
11682.97   215.75
11686.61   215.75
11692.52   215.73
11696.36   215.66
11700.68   215.64
11707.37   215.66
11711.65   215.56
11716.67   215.56
11722.91   215.47
11727.26   215.43
11731.90   215.34
11738.31   215.28
11741.51   215.28
11746.71   215.24
11750.68   215.19
11755.22   215.11
11761.11   215.07
11764.75   215.02
11770.04   215.05
11774.74   214.96
11779.08   215.00
11785.38   214.90
11789.10   214.98
11794.83   214.88
11799.29   214.92
11803.39   214.90
11809.08   214.88
11812.22   214.85
11816.65   214.83
11822.75   214.79
11826.27   214.70
11831.03   214.73
11835.80   214.72
11839.91   214.57
11845.78   214.60
11849.49   214.51
11853.69   214.49
11859.17   214.49
11862.85   214.40
11868.36   214.40
11872.36   214.36
11877.79   214.29
11880.93   214.27
11885.96   214.29
11890.65   214.14
11894.89   214.16
11899.99   214.14
11903.37   214.01
11909.20   214.04
11912.89   214.04
11917.67   213.99
11922.78   213.90
11926.28   213.93
11932.10   213.88
11936.83   213.75
11942.30   213.82
11946.20   213.75
11951.73   213.69
11955.45   213.73
11959.76   213.67
11964.20   213.64
11968.31   213.67
11974.37   213.65
11978.13   213.54
11983.36   213.53
11987.45   213.53
11992.38   213.51
11997.07   213.40
